# repro call number: 0
# mode: 3
# signal: 2
# stimulus file: /extra/setup/oel/stimuli/receptorInfo/gauss_st6_co800.dat
# carrier freq (kHz): 2.5
# stimulus length (msec): 1000
# pause between stimuli (msec): 700
# length of ramp (usec): 1000
# desired firing rate (Hz): 100
# standard deviation (dB): 6
# cut-off frequency (Hz): 800
# repetition number: 0
# duration (msec): 1000
# intensity (dB): 71.2
7300
12700
17100
22500
28000
34100
39300
43700
52300
60800
69400
80000
84600
89000
100800
106500
113300
118100
123900
128800
134000
140300
145000
148700
152400
163500
177900
186300
193000
200800
205900
213200
229200
242300
253200
262400
267600
273700
280700
291900
296800
307700
317300
323000
334500
343300
348900
357100
372500
380200
385200
396400
405500
411300
415700
419900
427100
433200
440500
448200
458200
470800
485200
493700
500900
526400
531600
551600
561100
567600
582100
586500
590900
596500
606800
611900
624400
638500
647800
654800
668500
672900
680800
689300
704200
708600
716000
722000
727200
737400
742100
748700
753400
760200
767100
776800
782400
790300
797100
804900
813300
822500
834600
843900
851700
856400
867700
880700
889400
894700
922300
934200
942500
947800
954100
964600
971000
975900
988700
994800
1008200
1012600
1023000
1031000
1037000
1044000
1049800
1060200
1074000
1080700
1087500
1096200
1101700
1110800
1127900
1138200
1148900
1163300
1174900
1190500
1196400
1215600
1220800
1228600
1243400
1256500
1263800
1270100
1286900
1295400
1306000
1312400
1317300
1331600
1340000
1344800
1351700
1359300
1367300
1374300
1380700
1392700
1404600
1432700
1441700
1457100
1468500
1474200
1479100
1486100
1491400
1497700
1507800
1517800
1536000
1542400
1547600
1555400
1566400
1572000
1577900
1584100
1588900
1599500
1605400
1615100
1620400
1629100
1646400
1653500
1666100
1675500
1686500
1693200
1699900
1709300
1717200
1723200
1731300
1740100
1753800
1781300
1795200
1811600
1823000
1832300
1837700
1852700
1859300
1873500
1880200
1890900
1899300
1905700
1922400
1929100
1938300
1944000
1958400
1968300
1978300
1989500
2000300
2010600
2024800
2036600
2045700
2066700
2074300
2085400
2091000
2098500
2110900
2123800
2129500
2137600
2147100
2160000
2173900
2181400
2193000
2202400
2212100
2224000
2240700
2254000
2268500
2279900
2297400
2304300
2310000
2321600
2331000
2344200
2354600
2369200
2382700
2390200
2395700
2406300
2413800
2421800
2439200
2451900
2460500
2466600
2475300
2481000
2487900
2501200
2508400
2529800
2536300
2546300
2552500
2561600
2574500
2587300
2607900
2624100
2642500
2654300
2661500
2674100
2688400
2698000
2709400
2724200
2730600
2741400
2746900
2759000
2766600
2790100
2799500
2806000
2818400
2826100
2834900
2849700
2858100
2871000
2891100
2897900
2910200
2921000
2932600
2938300
2945400
2951300
2974000
2982100
2995100
3007200
3016800
3028000
3042400
3060400
3073300
3082600
3094500
3100100
3111700
3117900
3130700
3138400
3154200
3161100
3169200
3180400
3189800
3195500
3225100
3233800
3252100
3266000
3272000
3283900
3296600
3302500
3312700
3318800
3329000
3348500
3356400
3369400
3377100
3393500
3411200
3420500
3429300
3445700
3453800
3459800
3474000
3484600
3497400
3510800
3517800
3528900
3537500
3543900
3554500
3577900
3590300
3609800
3646000
3654100
3661200
3669600
3676500
3696600
3708400
3715400
3730900
3737400
3744900
3755800
3761700
3777000
3795800
3810400
3831400
3843400
3853800
3865700
3874600
3891700
3909800
3915700
3934700
3940400
3959400
3971800
3978500
3998500
4010300
4016600
4026900
4034900
4049700
4058600
4066600
4073200
4079400
4090300
4099800
4116500
4136400
4144300
4152800
4161800
4172300
4180200
4189600
4202900
4214900
4222000
4231700
4254700
4261900
4273400
4296700
4318800
4339900
4353600
4360800
4378500
4388200
4395500
4401400
4410000
4416500
4442900
4453300
4464400
4487900
4516100
4529700
4542000
4547900
4554000
4571500
4582100
4600000
4609800
4625600
4633200
4640100
4651500
4661500
4676500
4691800
4702100
4720300
4730700
4750300
4765200
4771800
4782500
4793200
4802100
4816500
4845800
4859100
4875100
4887200
4896300
4914800
4927200
4934600
4944100
4959000
4981300
4992000
5002200
5013500
5024500
5036500
5048200
5055800
5062400
5076100
5084500
5098200
5113500
5121600
5134400
5157200
5163900
5173500
5185800
5196700
5204300
5210500
5219100
5234000
5248400
5255800
5270600
5277100
5298200
5306600
5318800
5327200
5348300
5354700
5362300
5373000
5381900
5393500
5401300
5419000
5434900
5444300
5455800
5466400
5482900
5491200
5499800
5506100
5517500
5541500
5557500
5576500
5586600
5599100
5620300
5630300
5645400
5654600
5663900
5671600
5678200
5694400
5705800
5725800
5742100
5763200
5770100
5778700
5803500
5814600
5821700
5828200
5837900
5843800
5852100
5865400
5876000
5883500
5893700
5921300
5933000
5943900
5968900
5978400
5986900
5999300
6008800
6024100
6039400
6046000
6053000
6070400
6081600
6095100
6107700
6124800
6131300
6142300
6153800
6160500
6183000
6194300
6202600
6212300
6222900
6235800
6253700
6271800
6280200
6300000
6316900
6326200
6350800
6363500
6372000
6385500
6396100
6404000
6426600
6437000
6447400
6455800
6464300
6473700
6481400
6495300
6512500
6526200
6534000
6541500
6548400
6557100
6575300
6582400
6590100
6609900
6618200
6628400
6637300
6655700
6668400
6675300
6686600
6699700
6708900
6719200
6730500
6745800
6760300
6771200
6777800
6786100
6799000
6810400
6818000
6828800
6843500
6853400
6864400
6871200
6881500
6890000
6904900
6919900
6927400
6939300
6953500
6976400
6984800
7010100
7017500
7038300
7056300
7063500
7092600
7104200
7114300
7129900
7145300
7154500
7168300
7178600
7189500
7196900
7207400
7228100
7236100
7254600
7286400
7294100
7303700
7316400
7329300
7346000
7353900
7367700
7385300
7398800
7408300
7432100
7440900
7449400
7456500
7477700
7492500
7499300
7518700
7531300
7538000
7545700
7553900
7571600
7587400
7597000
7611300
7621400
7643000
7652500
7661200
7688900
7698300
7705400
7711900
7718300
7735100
7744200
7750900
7760100
7770800
7780100
7789500
7804400
7812100
7827800
7846600
7859600
7875700
7893100
7903700
7911900
7926100
7935700
7954200
7960700
7975600
7983800
7998600
8006700
8014800
8040400
8051100
8064200
8091600
8112400
8119700
8127300
8143400
8149800
8159300
8175400
8189100
8197500
8205900
8219400
8233800
8254000
8262900
8278900
8291500
8306900
8315600
8324200
8336400
8352200
8364500
8380900
8389000
8397000
8411200
8419900
8438700
8454700
8465600
8478400
8502600
8538100
8557300
8566500
8575200
8588300
8596400
8620600
8638900
8646000
8657400
8670600
8682100
8689400
8706800
8720600
8736000
8756300
8772000
8792900
8811100
8825400
8832000
8839700
8852900
8864700
8878700
8887300
8895100
8911300
8921200
8931500
8943800
8963000
8971600
8981700
9001800
9023700
9038900
9048700
9058300
9070900
9086200
9105200
9122300
9132300
9146100
9158100
9165600
9172900
9181800
9192500
9204900
9217900
9226300
9243200
9251100
9261000
9275400
9291900
9302900
9315300
9322600
9339800
9359400
9367200
9380600
9402000
9413700
9421500
9431800
9449400
9461700
9472300
9483600
9500400
9510800
9526800
9535100
9563200
9571100
9583600
9594900
9601800
9616300
9626600
9634300
9642000
9655900
9665700
9679700
9690800
9700000
9715300
9723700
9753100
9759700
9771900
9790500
9809200
9816100
9831300
9851900
9869300
9882000
9889400
9912300
9926400
9949700
9962900
9977600



