# repro call number: 0
# mode: 3
# signal: 1
# stimulus file: /extra/setup/oel/stimuli/receptorInfo/gauss_st6_co200.dat
# carrier freq (kHz): 2.5
# stimulus length (msec): 1000
# pause between stimuli (msec): 700
# length of ramp (usec): 1000
# desired firing rate (Hz): 100
# standard deviation (dB): 6
# cut-off frequency (Hz): 200
# repetition number: 0
# duration (msec): 1000
# intensity (dB): 76.4286
6700
9900
13900
20100
25000
28400
37000
40600
46300
50500
59900
68800
75200
80600
84300
88000
93200
104800
118400
128500
135800
145600
148800
157100
170900
182800
198600
209500
214000
217900
221100
228700
238500
244500
257600
261800
269100
278200
285400
299100
302800
306100
333900
343800
352300
355900
362200
368300
371700
386900
397400
404600
413300
418900
427400
430800
435900
441400
456100
461600
465200
469300
474400
480700
484600
488700
496800
503800
514500
530100
536700
544800
549400
554600
564000
584300
591200
597500
607500
611800
615500
619100
627200
631500
635200
658900
669700
674300
678300
683300
690000
693700
704900
716000
719700
724600
729800
740800
749300
759500
770900
790800
794400
801600
813100
817100
835000
845000
849900
857700
865200
868900
875000
883900
893600
904600
919100
924900
929900
936400
940200
957700
961700
967900
973300
979400
988200
1002800
1009400
1024000
1030100
1047600
1056200
1067200
1076400
1081100
1087900
1096200
1114300
1126000
1135300
1143100
1152600
1157500
1166000
1175900
1185900
1191800
1199400
1212000
1223700
1235100
1240600
1245300
1251600
1256600
1267500
1274200
1286600
1291300
1296500
1305600
1312500
1316900
1338500
1345200
1364100
1378500
1390700
1394700
1400300
1405600
1412500
1420200
1430600
1447000
1451900
1478200
1488100
1499900
1511900
1517400
1532000
1542800
1550000
1555700
1580600
1587700
1593600
1609400
1616800
1627700
1635000
1639900
1656700
1661900
1671700
1678900
1683600
1692900
1705500
1721600
1727800
1736600
1743300
1756700
1761200
1780700
1787100
1810000
1815800
1827200
1833900
1841400
1856200
1862800
1868200
1877700
1890800
1899600
1912700
1932100
1950400
1961100
1967700
1972200
1988400
1997800
2002400
2016800
2034400
2048300
2056900
2069800
2078800
2084200
2099600
2110500
2115600
2135400
2162100
2171300
2181400
2192900
2209600
2215700
2230400
2237600
2243700
2257000
2261800
2267200
2273600
2278600
2290700
2296400
2303100
2315400
2320300
2328000
2341900
2347500
2357300
2371900
2377400
2383200
2393800
2398800
2413100
2427300
2434700
2442100
2453900
2460100
2477900
2493200
2498400
2511900
2519100
2527500
2544900
2563700
2573200
2579800
2589100
2594400
2600400
2609400
2614500
2625900
2639400
2650000
2660600
2674800
2690800
2698100
2702900
2715100
2725800
2739900
2751200
2757300
2769000
2776300
2790900
2797600
2809500
2816400
2823700
2833100
2838600
2843500
2849800
2860400
2866700
2879200
2887500
2893000
2897700
2904900
2915000
2925800
2931800
2938600
2948000
2957400
2964000
2969600
2983500
2992800
2999300
3014800
3026700
3039700
3045900
3056400
3064500
3074700
3090600
3102500
3113300
3122500
3135500
3145700
3155100
3164300
3188400
3196300
3201200
3213300
3229800
3235700
3247800
3254800
3261900
3272000
3279500
3287000
3297100
3304900
3322200
3339600
3350700
3357600
3368700
3376300
3385200
3391800
3398800
3421000
3431800
3450300
3456300
3470800
3476800
3482200
3494100
3507200
3517000
3538200
3546100
3554300
3571600
3579700
3588700
3597100
3610600
3621200
3638800
3644100
3650600
3661500
3673000
3683700
3713600
3724900
3745900
3750800
3756200
3763000
3768500
3783500
3795000
3803600
3808900
3820100
3836100
3844900
3856000
3872400
3878600
3887700
3900500
3906400
3917200
3922400
3932200
3947200
3956500
3974400
3993100
4002200
4007000
4012600
4019500
4044300
4052700
4064700
4073300
4084900
4098300
4104900
4117600
4122700
4132600
4162400
4172100
4177100
4186700
4192000
4199000
4204300
4218200
4225200
4234600
4240400
4247300
4263900
4282100
4289800
4298300
4315300
4324300
4332900
4349300
4369300
4377900
4393600
4401700
4407700
4426400
4432100
4440500
4447300
4454600
4469900
4476900
4485600
4491500
4498700
4508000
4524500
4535900
4558300
4565100
4575900
4587100
4593400
4600800
4611800
4640300
4651600
4663600
4672400
4684700
4698200
4714100
4728900
4740000
4748300
4755600
4761300
4771800
4791800
4797200
4803100
4808400
4824700
4835000
4851700
4862100
4872200
4879000
4895900
4901400
4908400
4926000
4933200
4938300
4967800
4975800
4981800
4988900
4996600
5002000
5024200
5032500
5058300
5073900
5083700
5089000
5113000
5138500
5145300
5156900
5166500
5173800
5179700
5186200
5194000
5206300
5212700
5218100
5224300
5244100
5257600
5265000
5277400
5286000
5293700
5300900
5326800
5333700
5348600
5361500
5387800
5396500
5417200
5422600
5428800
5433900
5449300
5454900
5460700
5472100
5477500
5482900
5496900
5512700
5518700
5530000
5540000
5560700
5568200
5575600
5585800
5599100
5624000
5634800
5640900
5651800
5661800
5668400
5687700
5705400
5713900
5730200
5739700
5751300
5757000
5764000
5771800
5784700
5794600
5802000
5809900
5819500
5830000
5835400
5842100
5850600
5862700
5869100
5885400
5898800
5907900
5916500
5922900
5939300
5951700
5962100
5986400
6008000
6017300
6031000
6037100
6052100
6057800
6066100
6073800
6096000
6101400
6110100
6117300
6143900
6151400
6162400
6171300
6189100
6200100
6206700
6217700
6247700
6256300
6269700
6274900
6297200
6305700
6314100
6331000
6336700
6349100
6372300
6382700
6396600
6402500
6408900
6414600
6425900
6437500
6443700
6466600
6472400
6504600
6525300
6543700
6550000
6557900
6565500
6571500
6578200
6584300
6597900
6604400
6614400
6626100
6635600
6642800
6654900
6663900
6681000
6690700
6696000
6711800
6721200
6728100
6754500
6765800
6777900
6783400
6788900
6796600
6802800
6812700
6833800
6840300
6852400
6865100
6872800
6879200
6895700
6909300
6921800
6932000
6938900
6956200
6978000
6991300
7004800
7017400
7023600
7064700
7071000
7077200
7084200
7104100
7115100
7127400
7142100
7152700
7160000
7172300
7181800
7194300
7209700
7220600
7230900
7238100
7244800
7251500
7260200
7296300
7302400
7315500
7322200
7337500
7348800
7363000
7372800
7389800
7399800
7406400
7420000
7428400
7451600
7462500
7473700
7481600
7488200
7494700
7500700
7516000
7533500
7541500
7547200
7553400
7559500
7565700
7574000
7589000
7594900
7601500
7616500
7629000
7641800
7648700
7657700
7667300
7674300
7683300
7689000
7702500
7714900
7724000
7747700
7756100
7782900
7813800
7819800
7830200
7855600
7898200
7909200
7915700
7934000
7940800
7967800
7974700
7985500
8014700
8024800
8037000
8047200
8055500
8064200
8077100
8083600
8090700
8102000
8109100
8122000
8130700
8139200
8153100
8161500
8170700
8176900
8197000
8206300
8213600
8229400
8242500
8263000
8274100
8282700
8295000
8304900
8321300
8347000
8354800
8369700
8386500
8396700
8413600
8419800
8458700
8479200
8485100
8498500
8506100
8518900
8525800
8534800
8553800
8560000
8570000
8591600
8614400
8621200
8638600
8659000
8667800
8680900
8692300
8703200
8724600
8733500
8744900
8752000
8761000
8766800
8772900
8782700
8796700
8807600
8816600
8825100
8833600
8841200
8854900
8862300
8868800
8893700
8918500
8925700
8938000
8945400
8959200
8965100
8972000
8998300
9005700
9019200
9049300
9057400
9068600
9083000
9103800
9110200
9117800
9134800
9161100
9177800
9191400
9199900
9208300
9215000
9228400
9236800
9250600
9258500
9266900
9276000
9287000
9293800
9308400
9339600
9349800
9364400
9371500
9387500
9397800
9404100
9410200
9421900
9430800
9438500
9451700
9463500
9477900
9493300
9512200
9522700
9534300
9563900
9579800
9588200
9599000
9613700
9619900
9628900
9645200
9666100
9685800
9693100
9711000
9716900
9729900
9737100
9742900
9756600
9768100
9780100
9792700
9807800
9823200
9842800
9849000
9861200
9874000
9898100
9909100
9923800
9935300
9945200
9956200
9978400
9987000
9999300


